File: RockPy/Tools/data/XRD/pyrrhotite_5C_elliot(2010)_298K_peaklist
Peak list for sample No diffraction data present
2theta;Peak height;FWHM;99-900-0006
7.16;;;32.0
14.34;;;7.2
17.60;;;85.3
17.61;;;44.9
18.71;;;73.7
20.34;;;3.3
20.36;;;31.7
21.58;;;2.7
22.51;;;2.6
27.77;;;1.5
28.91;;;1.2
30.33;;;11.2
30.35;;;21.2
30.71;;;1.1
30.72;;;10.8
30.94;;;20.1
32.05;;;9.6
32.07;;;1.0
33.45;;;0.9
33.87;;;15.5
34.85;;;445.3
34.88;;;444.1
34.94;;;442.1
35.62;;;1.4
35.66;;;1.4
35.71;;;1.4
36.36;;;105.6
37.11;;;11.8
37.12;;;6.2
37.30;;;0.6
37.86;;;1.1
37.89;;;1.1
37.94;;;1.1
39.47;;;423.8
39.50;;;422.8
39.55;;;421.1
39.67;;;5.1
39.69;;;0.5
41.36;;;0.8
41.39;;;0.8
41.44;;;0.8
42.19;;;7.9
43.98;;;0.3
43.98;;;6.9
43.99;;;3.6
44.98;;;3.4
45.00;;;6.4
45.89;;;0.6
45.92;;;0.6
45.96;;;0.6
46.81;;;3.0
46.83;;;5.6
46.92;;;5.6
46.95;;;2.9
47.33;;;5.4
47.38;;;5.4
47.58;;;5.3
48.03;;;2.7
48.05;;;0.2
48.13;;;0.2
48.16;;;2.7
49.12;;;0.2
49.17;;;0.2
50.98;;;2.2
51.00;;;4.2
51.24;;;0.2
51.24;;;2.2
51.25;;;1000.0
51.27;;;998.4
51.31;;;995.6
51.80;;;0.2
52.01;;;0.2
52.06;;;0.2
53.52;;;3.5
53.58;;;1.8
53.78;;;1.8
53.80;;;0.1
53.87;;;0.1
53.90;;;1.8
54.08;;;3.4
54.19;;;3.4
54.63;;;0.1
54.68;;;1.7
55.02;;;0.1
55.71;;;0.1
55.87;;;3.0
55.92;;;3.0
57.30;;;0.2
57.32;;;0.2
57.36;;;0.2
57.58;;;1.4
57.60;;;0.1
58.09;;;1.4
58.11;;;2.6
58.18;;;2.6
58.21;;;1.3
58.37;;;0.1
59.90;;;0.1
59.93;;;0.1
59.98;;;1.2
61.06;;;0.1
61.98;;;2.1
62.47;;;384.4
62.58;;;382.0
62.64;;;380.7
62.84;;;0.1
62.98;;;0.2
63.08;;;0.2
63.15;;;0.2
63.21;;;1.0
63.23;;;1.9
63.30;;;1.9
63.32;;;1.0
63.96;;;0.1
63.98;;;1.8
63.98;;;0.1
64.01;;;0.1
64.02;;;0.9
64.47;;;0.1
64.57;;;0.1
64.64;;;0.1
65.51;;;0.9
65.59;;;1.6
65.62;;;0.8
65.66;;;1.6
65.82;;;1.6
65.86;;;1.6
66.09;;;1.6
66.13;;;1.6
66.49;;;0.8
66.57;;;0.0
66.60;;;0.8
66.63;;;0.0
66.89;;;0.0
66.90;;;0.8
66.92;;;0.1
67.02;;;0.1
67.08;;;0.1
67.28;;;0.0
67.32;;;0.0
67.51;;;70.7
67.53;;;70.6
67.56;;;70.5
68.34;;;0.0
68.46;;;0.0
68.85;;;1.4
68.89;;;0.7
69.07;;;0.7
69.08;;;0.0
69.15;;;0.0
69.18;;;0.7
69.68;;;0.0
69.72;;;0.0
70.27;;;0.1
70.37;;;0.1
70.43;;;0.1
71.09;;;1.2
71.21;;;0.1
71.22;;;0.1
71.26;;;0.1
71.28;;;0.6
71.35;;;0.0
71.38;;;0.6
71.41;;;0.0
71.69;;;1.2
72.30;;;0.0
72.34;;;0.0
72.40;;;0.6
72.41;;;0.0
72.98;;;1.1
73.01;;;1.1
73.59;;;32.3
73.67;;;32.1
73.80;;;31.9
74.05;;;0.1
74.13;;;0.1
74.26;;;0.1
74.49;;;13.4
74.49;;;0.0
74.53;;;0.5
74.59;;;13.3
74.64;;;13.3
75.01;;;0.5
75.08;;;1.0
75.11;;;0.5
75.14;;;1.0
75.39;;;1.0
75.39;;;0.5
75.44;;;0.1
75.52;;;0.1
75.65;;;0.1
76.43;;;0.9
76.48;;;48.3
76.55;;;48.2
76.68;;;47.9
77.22;;;183.7
77.71;;;0.0
77.73;;;0.0
77.81;;;0.0
77.94;;;0.0
79.06;;;0.0
79.08;;;0.0
79.11;;;0.0
79.21;;;0.0
79.25;;;0.0
79.53;;;0.0
79.58;;;0.4
79.62;;;0.0
79.65;;;0.8
79.68;;;0.0
79.68;;;0.4
79.72;;;0.8
80.66;;;0.4
80.68;;;0.7
80.91;;;0.0
80.99;;;0.0
81.12;;;0.0
81.57;;;0.7
81.59;;;0.4
81.70;;;0.7
81.80;;;0.3
82.10;;;0.7
82.12;;;0.7
82.16;;;0.7
82.17;;;0.7
82.47;;;0.0
82.50;;;0.3
82.60;;;0.0
82.70;;;0.3
82.90;;;0.3
82.91;;;0.0
82.98;;;0.0
83.20;;;0.0