File: RockPy/Tools/data/XRD/pyrrhotite_4C_powell(2004)_298K_peaklist
Peak list for sample No diffraction data present
2theta;Peak height;FWHM;99-900-0004
17.82;;;156.9
17.87;;;48.3
18.04;;;85.6
19.41;;;13.0
19.57;;;152.6
21.93;;;138.5
22.03;;;11.9
28.52;;;10.8
28.65;;;77.0
30.13;;;7.7
30.44;;;10.8
30.51;;;38.8
31.51;;;52.4
32.25;;;55.4
32.54;;;18.3
33.04;;;28.3
33.25;;;19.8
34.92;;;405.9
34.93;;;804.2
35.34;;;0.3
36.10;;;1.8
36.19;;;4.2
36.37;;;20.3
36.52;;;43.9
36.55;;;107.9
37.84;;;18.4
38.15;;;22.9
39.42;;;123.7
39.51;;;623.1
39.67;;;243.1
39.73;;;312.0
41.04;;;63.9
44.22;;;38.5
44.60;;;19.5
44.72;;;0.5
44.94;;;0.5
45.00;;;10.4
45.17;;;1.6
46.78;;;3.7
46.97;;;9.0
47.02;;;0.1
47.04;;;23.7
47.06;;;4.0
47.67;;;1.3
47.81;;;57.5
48.07;;;2.6
48.78;;;43.1
48.90;;;1.4
48.95;;;32.9
49.04;;;1.7
49.46;;;0.9
49.80;;;14.8
50.40;;;0.0
50.66;;;0.3
51.18;;;496.6
51.32;;;931.2
51.58;;;1000.0
51.70;;;472.0
51.75;;;1.0
52.19;;;0.2
52.35;;;1.9
52.53;;;36.2
52.61;;;1.9
52.75;;;43.5
53.71;;;18.8
53.75;;;1.2
54.24;;;13.6
54.27;;;2.0
54.42;;;0.6
54.46;;;28.7
54.77;;;55.5
55.14;;;0.0
55.39;;;29.9
55.53;;;7.8
56.11;;;0.2
56.12;;;6.0
57.44;;;6.9
57.66;;;13.6
57.77;;;2.2
57.97;;;6.7
58.70;;;7.2
58.93;;;30.5
59.02;;;1.7
59.31;;;1.7
60.21;;;4.8
60.55;;;1.5
60.70;;;2.7
60.77;;;32.3
61.01;;;1.8
61.30;;;0.0
62.63;;;729.0
62.65;;;360.6
63.33;;;0.4
63.44;;;2.6
63.49;;;6.1
63.50;;;1.0
63.79;;;19.0
63.83;;;2.7
64.08;;;0.2
64.10;;;0.0
64.23;;;7.7
64.27;;;17.9
64.47;;;0.4
65.02;;;0.0
65.52;;;3.9
65.59;;;1.2
65.64;;;0.0
65.66;;;0.1
65.73;;;2.0
65.89;;;1.0
65.78;;;0.9
65.93;;;1.4
66.26;;;1.6
66.32;;;10.1
67.08;;;10.2
67.13;;;2.6
67.34;;;6.1
67.37;;;1.2
67.49;;;44.4
67.55;;;0.0
67.67;;;44.4
68.00;;;88.7
68.10;;;8.0
68.15;;;20.8
68.52;;;0.1
68.63;;;0.0
69.16;;;19.5
69.32;;;0.1
69.52;;;2.5
69.54;;;3.3
69.59;;;0.2
69.59;;;2.7
69.81;;;0.0
69.96;;;1.0
70.01;;;1.8
70.05;;;3.2
70.09;;;5.4
70.43;;;2.1
70.48;;;9.1
71.39;;;4.5
71.70;;;0.0
71.84;;;3.0
72.12;;;0.0
72.24;;;8.6
72.40;;;3.5
72.89;;;4.9
73.68;;;4.9
73.75;;;29.4
73.78;;;57.2
74.35;;;2.3
74.43;;;12.4
74.46;;;0.9
74.46;;;4.5
74.56;;;1.2
74.62;;;11.1
74.77;;;13.5
74.78;;;4.3
74.82;;;9.4
74.92;;;0.0
75.00;;;0.6
75.06;;;15.8
75.66;;;0.0
76.29;;;0.0
76.46;;;30.1
76.59;;;36.8
76.80;;;58.2
76.87;;;16.9
76.91;;;8.4
77.25;;;0.0
77.32;;;2.4
77.34;;;1.6
77.53;;;2.5
77.62;;;0.0
77.68;;;186.1
79.72;;;3.3
80.04;;;0.0
80.05;;;0.0
80.13;;;0.7
80.17;;;0.2
80.30;;;1.7
80.40;;;4.3
80.44;;;0.0
80.57;;;0.0
80.75;;;2.1
80.84;;;0.3
80.86;;;0.5
80.89;;;6.0
81.25;;;1.7
81.62;;;0.6
81.68;;;0.7
81.82;;;3.6
81.89;;;7.5
81.90;;;0.0
81.91;;;0.3
82.29;;;3.2
82.50;;;18.6
83.15;;;11.1
83.29;;;8.9
83.33;;;3.7
83.42;;;3.6
83.72;;;0.0
83.98;;;6.8
84.32;;;0.0
84.72;;;0.0
84.82;;;76.9
84.91;;;15.9
85.05;;;166.6
85.43;;;2.7
85.46;;;160.0
85.52;;;0.4
85.63;;;4.7
85.64;;;89.0
85.89;;;3.5
85.93;;;10.1
86.06;;;0.0
86.11;;;4.4
86.18;;;8.8
86.27;;;0.4
86.34;;;11.6
86.89;;;2.4
86.98;;;0.6
87.05;;;6.0
87.06;;;0.1
87.10;;;0.5
87.10;;;4.3
87.20;;;0.1
87.52;;;0.2
87.67;;;12.0
87.69;;;17.4
87.74;;;15.2
87.90;;;46.4
87.90;;;3.2
88.03;;;0.0
88.28;;;10.0
88.30;;;39.1
88.35;;;0.8
88.43;;;0.5
88.50;;;25.9
88.54;;;6.3
88.55;;;1.0
88.62;;;0.5
89.03;;;1.0
89.47;;;1.3
89.55;;;0.0
89.86;;;0.1
89.89;;;5.7
89.90;;;4.7
90.03;;;1.2
90.29;;;9.2
90.33;;;0.2
90.42;;;6.1
90.48;;;2.7
90.66;;;3.5
90.85;;;6.6
90.96;;;0.1
90.98;;;0.5
91.00;;;0.5
91.21;;;7.0
91.35;;;1.0
91.40;;;0.8
91.46;;;0.0
91.55;;;11.1
91.65;;;1.5
91.76;;;0.0
91.86;;;2.3
92.10;;;0.0
92.56;;;0.2
92.57;;;0.5
93.00;;;16.2
93.39;;;0.6
93.46;;;0.0
95.10;;;2.5
95.27;;;1.4
95.40;;;5.9
95.42;;;0.0
95.44;;;0.2
95.59;;;2.6
95.60;;;6.0
95.67;;;0.2
95.84;;;3.0
95.90;;;1.7
95.96;;;5.4
96.07;;;0.0
96.26;;;0.3
96.39;;;0.0
96.43;;;0.0
96.58;;;8.0
96.86;;;4.0